Circuit: * C:\Users\bakaneko\Facultad\Materias\Circuitos Electrónicos II\TPS\REPO-TPS\REPO\TP_FInal_V2\DSE\Spice (Diego)\amplifier\amplifier_THD_vs_freq.asc

Direct Newton iteration failed to find .op point.  (Use ".option noopiter" to skip.)
Starting Gmin stepping
Gmin = 10
Gmin = 1.07374
Gmin = 0.115292
Gmin = 0.0123794
Gmin = 0.00132923
Gmin = 0.000142725
Gmin = 1.5325e-005
Gmin = 1.6455e-006
vernier = 0.5
vernier = 0.25
vernier = 0.125
vernier = 0.0625
vernier = 0.03125
vernier = 0.015625
vernier = 0.0078125
vernier = 0.00390625
vernier = 0.00195313
vernier = 0.000976563
Gmin = 2.05688e-006
vernier = 0.000488281
Gmin = 0
Gmin stepping failed

Starting source stepping with srcstepmethod=0
Source Step = 3.0303%
Source Step = 33.3333%
Source Step = 63.6364%
Source Step = 93.9394%
Source stepping succeeded in finding the operating point.

.step freq=0
Bad frequency found in .fourier command: ".fourier  0  30 4 v(out)"

.step freq=1000
N-Period=4
Fourier components of V(out)
DC component:-0.161196

Harmonic	Frequency	 Fourier 	Normalized	 Phase  	Normalized
 Number 	  [Hz]   	Component	 Component	[degree]	Phase [deg]
    1   	1.000e+03	2.531e+01	1.000e+00	    0.37°	    0.00°
    2   	2.000e+03	1.361e-03	5.376e-05	  173.28°	  172.92°
    3   	3.000e+03	7.458e-04	2.946e-05	 -177.31°	 -177.68°
    4   	4.000e+03	6.432e-04	2.541e-05	 -179.45°	 -179.82°
    5   	5.000e+03	4.777e-04	1.887e-05	 -174.01°	 -174.38°
    6   	6.000e+03	4.531e-04	1.790e-05	  179.88°	  179.52°
    7   	7.000e+03	3.438e-04	1.358e-05	 -177.74°	 -178.10°
    8   	8.000e+03	3.503e-04	1.384e-05	 -179.53°	 -179.90°
    9   	9.000e+03	2.764e-04	1.092e-05	 -174.72°	 -175.09°
   10   	1.000e+04	2.854e-04	1.128e-05	 -179.29°	 -179.65°
   11   	1.100e+04	2.303e-04	9.098e-06	 -169.46°	 -169.83°
   12   	1.200e+04	2.282e-04	9.013e-06	 -179.67°	 -180.03°
   13   	1.300e+04	1.912e-04	7.555e-06	 -168.55°	 -168.92°
   14   	1.400e+04	1.815e-04	7.171e-06	  179.32°	  178.95°
   15   	1.500e+04	1.606e-04	6.343e-06	 -177.37°	 -177.74°
   16   	1.600e+04	1.529e-04	6.041e-06	  178.58°	  178.22°
   17   	1.700e+04	1.477e-04	5.836e-06	  169.90°	  169.54°
   18   	1.800e+04	1.433e-04	5.661e-06	  179.36°	  178.99°
   19   	1.900e+04	1.402e-04	5.538e-06	  165.82°	  165.46°
   20   	2.000e+04	1.421e-04	5.614e-06	 -178.88°	 -179.24°
   21   	2.100e+04	1.243e-04	4.909e-06	  173.91°	  173.54°
   22   	2.200e+04	1.350e-04	5.331e-06	 -177.73°	 -178.10°
   23   	2.300e+04	1.079e-04	4.263e-06	 -172.02°	 -172.39°
   24   	2.400e+04	1.156e-04	4.566e-06	 -178.41°	 -178.78°
   25   	2.500e+04	9.493e-05	3.750e-06	 -166.47°	 -166.83°
   26   	2.600e+04	9.138e-05	3.610e-06	  178.63°	  178.27°
   27   	2.700e+04	8.683e-05	3.430e-06	 -178.76°	 -179.12°
   28   	2.800e+04	7.599e-05	3.002e-06	  175.51°	  175.15°
   29   	2.900e+04	9.288e-05	3.669e-06	  163.94°	  163.57°
   30   	3.000e+04	7.570e-05	2.990e-06	  176.78°	  176.41°
Total Harmonic Distortion: 0.007964%(0.048765%)

.step freq=2000
N-Period=4
Fourier components of V(out)
DC component:-0.0770547

Harmonic	Frequency	 Fourier 	Normalized	 Phase  	Normalized
 Number 	  [Hz]   	Component	 Component	[degree]	Phase [deg]
    1   	2.000e+03	2.532e+01	1.000e+00	   -0.03°	    0.00°
    2   	4.000e+03	5.686e-04	2.246e-05	  162.22°	  162.25°
    3   	6.000e+03	1.521e-04	6.010e-06	 -142.27°	 -142.24°
    4   	8.000e+03	2.048e-04	8.090e-06	  179.43°	  179.46°
    5   	1.000e+04	1.464e-04	5.784e-06	 -135.89°	 -135.86°
    6   	1.200e+04	1.850e-04	7.307e-06	  176.89°	  176.92°
    7   	1.400e+04	9.181e-05	3.627e-06	 -162.42°	 -162.39°
    8   	1.600e+04	1.593e-04	6.294e-06	  179.01°	  179.04°
    9   	1.800e+04	9.360e-05	3.697e-06	 -148.19°	 -148.16°
   10   	2.000e+04	1.382e-04	5.461e-06	 -179.69°	 -179.66°
   11   	2.200e+04	1.034e-04	4.084e-06	 -126.37°	 -126.34°
   12   	2.400e+04	9.565e-05	3.778e-06	  179.14°	  179.17°
   13   	2.600e+04	8.839e-05	3.491e-06	 -117.43°	 -117.40°
   14   	2.800e+04	5.376e-05	2.124e-06	  171.61°	  171.64°
   15   	3.000e+04	3.794e-05	1.499e-06	 -149.02°	 -148.99°
   16   	3.200e+04	3.627e-05	1.433e-06	  161.06°	  161.09°
   17   	3.400e+04	6.355e-05	2.510e-06	  128.71°	  128.74°
   18   	3.600e+04	4.713e-05	1.862e-06	  169.62°	  169.65°
   19   	3.800e+04	8.710e-05	3.441e-06	  124.23°	  124.26°
   20   	4.000e+04	7.004e-05	2.767e-06	  179.61°	  179.64°
   21   	4.200e+04	5.523e-05	2.182e-06	  144.59°	  144.62°
   22   	4.400e+04	7.643e-05	3.019e-06	 -176.58°	 -176.55°
   23   	4.600e+04	3.977e-05	1.571e-06	 -133.71°	 -133.68°
   24   	4.800e+04	5.269e-05	2.081e-06	 -178.27°	 -178.24°
   25   	5.000e+04	5.155e-05	2.036e-06	 -103.22°	 -103.19°
   26   	5.200e+04	1.662e-05	6.565e-07	  157.83°	  157.86°
   27   	5.400e+04	1.656e-05	6.543e-07	 -138.50°	 -138.47°
   28   	5.600e+04	1.190e-05	4.703e-07	   63.99°	   64.02°
   29   	5.800e+04	5.779e-05	2.283e-06	  117.68°	  117.71°
   30   	6.000e+04	9.531e-06	3.765e-07	  135.21°	  135.24°
Total Harmonic Distortion: 0.003003%(0.012261%)

.step freq=3000
N-Period=4
Fourier components of V(out)
DC component:-0.0507488

Harmonic	Frequency	 Fourier 	Normalized	 Phase  	Normalized
 Number 	  [Hz]   	Component	 Component	[degree]	Phase [deg]
    1   	3.000e+03	2.532e+01	1.000e+00	   -0.26°	    0.00°
    2   	6.000e+03	5.348e-04	2.112e-05	  159.18°	  159.44°
    3   	9.000e+03	2.001e-04	7.905e-06	  -92.67°	  -92.42°
    4   	1.200e+04	1.501e-04	5.928e-06	  174.89°	  175.14°
    5   	1.500e+04	1.611e-04	6.364e-06	 -106.15°	 -105.89°
    6   	1.800e+04	1.720e-04	6.794e-06	  172.32°	  172.57°
    7   	2.100e+04	6.911e-05	2.730e-06	 -146.03°	 -145.77°
    8   	2.400e+04	1.604e-04	6.338e-06	  176.01°	  176.26°
    9   	2.700e+04	9.126e-05	3.605e-06	 -132.01°	 -131.75°
   10   	3.000e+04	1.471e-04	5.810e-06	  178.07°	  178.32°
   11   	3.300e+04	1.281e-04	5.058e-06	 -107.64°	 -107.38°
   12   	3.600e+04	9.438e-05	3.728e-06	  175.08°	  175.34°
   13   	3.900e+04	1.232e-04	4.868e-06	  -95.76°	  -95.51°
   14   	4.200e+04	3.845e-05	1.519e-06	  152.46°	  152.72°
   15   	4.500e+04	3.815e-05	1.507e-06	 -102.28°	 -102.02°
   16   	4.800e+04	2.338e-05	9.237e-07	  106.66°	  106.92°
   17   	5.100e+04	7.874e-05	3.110e-06	  110.64°	  110.90°
   18   	5.400e+04	3.308e-05	1.307e-06	  151.17°	  151.43°
   19   	5.700e+04	1.275e-04	5.038e-06	  111.29°	  111.55°
   20   	6.000e+04	7.365e-05	2.909e-06	  176.34°	  176.60°
   21   	6.300e+04	7.399e-05	2.923e-06	  123.27°	  123.53°
   22   	6.600e+04	9.142e-05	3.611e-06	  179.82°	  180.08°
   23   	6.900e+04	4.229e-05	1.670e-06	 -110.51°	 -110.25°
   24   	7.200e+04	5.797e-05	2.290e-06	  173.86°	  174.11°
   25   	7.500e+04	8.574e-05	3.387e-06	  -86.67°	  -86.42°
   26   	7.800e+04	1.426e-05	5.635e-07	   76.78°	   77.03°
   27   	8.100e+04	2.891e-05	1.142e-06	  -89.29°	  -89.03°
   28   	8.400e+04	4.040e-05	1.596e-06	   18.75°	   19.01°
   29   	8.700e+04	7.980e-05	3.152e-06	  104.27°	  104.53°
   30   	9.000e+04	1.712e-05	6.761e-07	   12.68°	   12.94°
Total Harmonic Distortion: 0.002991%(0.009654%)

.step freq=4000
N-Period=4
Fourier components of V(out)
DC component:-0.0379066

Harmonic	Frequency	 Fourier 	Normalized	 Phase  	Normalized
 Number 	  [Hz]   	Component	 Component	[degree]	Phase [deg]
    1   	4.000e+03	2.532e+01	1.000e+00	   -0.44°	    0.00°
    2   	8.000e+03	6.043e-04	2.387e-05	  159.46°	  159.90°
    3   	1.200e+04	3.795e-04	1.499e-05	  -86.00°	  -85.56°
    4   	1.600e+04	1.504e-04	5.941e-06	  168.74°	  169.18°
    5   	2.000e+04	2.110e-04	8.337e-06	  -98.01°	  -97.57°
    6   	2.400e+04	1.942e-04	7.670e-06	  167.76°	  168.20°
    7   	2.800e+04	7.912e-05	3.125e-06	 -144.44°	 -143.99°
    8   	3.200e+04	1.878e-04	7.420e-06	  172.96°	  173.40°
    9   	3.600e+04	1.080e-04	4.265e-06	 -132.60°	 -132.15°
   10   	4.000e+04	1.794e-04	7.087e-06	  175.60°	  176.04°
   11   	4.400e+04	1.618e-04	6.392e-06	 -103.79°	 -103.35°
   12   	4.800e+04	1.144e-04	4.518e-06	  170.55°	  170.99°
   13   	5.200e+04	1.699e-04	6.712e-06	  -90.35°	  -89.90°
   14   	5.600e+04	4.337e-05	1.713e-06	  132.93°	  133.37°
   15   	6.000e+04	6.021e-05	2.379e-06	  -89.75°	  -89.31°
   16   	6.400e+04	3.690e-05	1.458e-06	   70.09°	   70.53°
   17   	6.800e+04	1.041e-04	4.113e-06	  107.51°	  107.95°
   18   	7.200e+04	2.922e-05	1.154e-06	  128.52°	  128.96°
   19   	7.600e+04	1.846e-04	7.292e-06	  107.53°	  107.97°
   20   	8.000e+04	8.715e-05	3.443e-06	  173.39°	  173.83°
   21   	8.400e+04	1.120e-04	4.423e-06	  113.20°	  113.64°
   22   	8.800e+04	1.192e-04	4.709e-06	  174.78°	  175.23°
   23   	9.200e+04	4.928e-05	1.946e-06	 -102.71°	 -102.26°
   24   	9.600e+04	7.554e-05	2.984e-06	  163.65°	  164.09°
   25   	1.000e+05	1.276e-04	5.042e-06	  -86.41°	  -85.97°
   26   	1.040e+05	2.903e-05	1.147e-06	   53.79°	   54.23°
   27   	1.080e+05	5.238e-05	2.069e-06	  -92.43°	  -91.99°
   28   	1.120e+05	6.931e-05	2.738e-06	    7.77°	    8.21°
   29   	1.160e+05	1.088e-04	4.298e-06	  100.78°	  101.22°
   30   	1.200e+05	3.541e-05	1.399e-06	  -10.61°	  -10.17°
Total Harmonic Distortion: 0.003749%(0.014255%)

.step freq=5000
N-Period=4
Fourier components of V(out)
DC component:-0.0302989

Harmonic	Frequency	 Fourier 	Normalized	 Phase  	Normalized
 Number 	  [Hz]   	Component	 Component	[degree]	Phase [deg]
    1   	5.000e+03	2.531e+01	1.000e+00	   -0.61°	    0.00°
    2   	1.000e+04	7.050e-04	2.785e-05	  160.15°	  160.76°
    3   	1.500e+04	6.552e-04	2.588e-05	  -87.03°	  -86.42°
    4   	2.000e+04	1.692e-04	6.685e-06	  162.35°	  162.96°
    5   	2.500e+04	2.662e-04	1.052e-05	  -96.07°	  -95.46°
    6   	3.000e+04	2.262e-04	8.935e-06	  162.96°	  163.57°
    7   	3.500e+04	9.906e-05	3.913e-06	 -150.53°	 -149.92°
    8   	4.000e+04	2.212e-04	8.738e-06	  169.87°	  170.48°
    9   	4.500e+04	1.282e-04	5.066e-06	 -139.48°	 -138.87°
   10   	5.000e+04	2.189e-04	8.649e-06	  173.43°	  174.04°
   11   	5.500e+04	1.942e-04	7.671e-06	 -103.73°	 -103.12°
   12   	6.000e+04	1.428e-04	5.642e-06	  166.75°	  167.36°
   13   	6.500e+04	2.208e-04	8.721e-06	  -88.90°	  -88.29°
   14   	7.000e+04	5.716e-05	2.258e-06	  120.13°	  120.74°
   15   	7.500e+04	8.735e-05	3.450e-06	  -89.02°	  -88.41°
   16   	8.000e+04	5.854e-05	2.313e-06	   55.82°	   56.43°
   17   	8.500e+04	1.349e-04	5.330e-06	  107.48°	  108.09°
   18   	9.000e+04	2.963e-05	1.170e-06	  100.91°	  101.52°
   19   	9.500e+04	2.532e-04	1.000e-05	  104.88°	  105.49°
   20   	1.000e+05	1.022e-04	4.039e-06	  170.61°	  171.22°
   21   	1.050e+05	1.602e-04	6.327e-06	  106.17°	  106.78°
   22   	1.100e+05	1.515e-04	5.984e-06	  169.65°	  170.26°
   23   	1.150e+05	5.635e-05	2.226e-06	  -99.09°	  -98.48°
   24   	1.200e+05	9.810e-05	3.875e-06	  154.23°	  154.84°
   25   	1.250e+05	1.739e-04	6.868e-06	  -89.87°	  -89.26°
   26   	1.300e+05	4.626e-05	1.827e-06	   45.58°	   46.19°
   27   	1.350e+05	7.844e-05	3.098e-06	 -101.56°	 -100.95°
   28   	1.400e+05	9.908e-05	3.914e-06	   -0.65°	   -0.04°
   29   	1.450e+05	1.434e-04	5.663e-06	   98.11°	   98.72°
   30   	1.500e+05	5.478e-05	2.164e-06	  -24.82°	  -24.21°
Total Harmonic Distortion: 0.004915%(0.020304%)

.step freq=6000
N-Period=4
Fourier components of V(out)
DC component:-0.0252644

Harmonic	Frequency	 Fourier 	Normalized	 Phase  	Normalized
 Number 	  [Hz]   	Component	 Component	[degree]	Phase [deg]
    1   	6.000e+03	2.531e+01	1.000e+00	   -0.77°	    0.00°
    2   	1.200e+04	8.154e-04	3.221e-05	  160.31°	  161.09°
    3   	1.800e+04	1.053e-03	4.161e-05	  -89.14°	  -88.37°
    4   	2.400e+04	1.927e-04	7.612e-06	  156.71°	  157.48°
    5   	3.000e+04	3.209e-04	1.267e-05	  -96.26°	  -95.49°
    6   	3.600e+04	2.614e-04	1.033e-05	  159.19°	  159.96°
    7   	4.200e+04	1.223e-04	4.832e-06	 -159.41°	 -158.64°
    8   	4.800e+04	2.608e-04	1.030e-05	  167.30°	  168.07°
    9   	5.400e+04	1.488e-04	5.877e-06	 -147.62°	 -146.85°
   10   	6.000e+04	2.661e-04	1.051e-05	  170.59°	  171.36°
   11   	6.600e+04	2.276e-04	8.991e-06	 -104.55°	 -103.78°
   12   	7.200e+04	1.758e-04	6.944e-06	  161.48°	  162.26°
   13   	7.800e+04	2.770e-04	1.094e-05	  -89.58°	  -88.81°
   14   	8.400e+04	7.437e-05	2.938e-06	  107.58°	  108.35°
   15   	9.000e+04	1.153e-04	4.555e-06	  -93.00°	  -92.23°
   16   	9.600e+04	8.250e-05	3.259e-06	   44.07°	   44.84°
   17   	1.020e+05	1.751e-04	6.918e-06	  106.99°	  107.76°
   18   	1.080e+05	2.974e-05	1.175e-06	   76.96°	   77.73°
   19   	1.140e+05	3.326e-04	1.314e-05	  101.30°	  102.07°
   20   	1.200e+05	1.228e-04	4.852e-06	  167.89°	  168.66°
   21   	1.260e+05	2.127e-04	8.401e-06	   99.43°	  100.20°
   22   	1.320e+05	1.884e-04	7.441e-06	  162.94°	  163.71°
   23   	1.380e+05	6.737e-05	2.661e-06	  -97.87°	  -97.10°
   24   	1.440e+05	1.213e-04	4.791e-06	  142.94°	  143.71°
   25   	1.500e+05	2.236e-04	8.832e-06	  -95.61°	  -94.84°
   26   	1.560e+05	6.767e-05	2.673e-06	   34.67°	   35.44°
   27   	1.620e+05	1.033e-04	4.080e-06	 -112.71°	 -111.94°
   28   	1.680e+05	1.305e-04	5.157e-06	  -10.92°	  -10.15°
   29   	1.740e+05	1.857e-04	7.337e-06	   93.76°	   94.53°
   30   	1.800e+05	7.243e-05	2.861e-06	  -40.22°	  -39.45°
Total Harmonic Distortion: 0.006519%(0.026838%)

.step freq=7000
N-Period=4
Fourier components of V(out)
DC component:-0.0216884

Harmonic	Frequency	 Fourier 	Normalized	 Phase  	Normalized
 Number 	  [Hz]   	Component	 Component	[degree]	Phase [deg]
    1   	7.000e+03	2.531e+01	1.000e+00	   -0.93°	    0.00°
    2   	1.400e+04	9.356e-04	3.696e-05	  160.35°	  161.28°
    3   	2.100e+04	1.604e-03	6.338e-05	  -90.98°	  -90.05°
    4   	2.800e+04	2.266e-04	8.952e-06	  151.15°	  152.08°
    5   	3.500e+04	3.797e-04	1.500e-05	  -96.93°	  -96.00°
    6   	4.200e+04	2.995e-04	1.183e-05	  154.43°	  155.35°
    7   	4.900e+04	1.531e-04	6.047e-06	 -168.11°	 -167.19°
    8   	5.600e+04	2.975e-04	1.175e-05	  164.24°	  165.17°
    9   	6.300e+04	1.730e-04	6.836e-06	 -157.33°	 -156.40°
   10   	7.000e+04	3.129e-04	1.236e-05	  168.29°	  169.22°
   11   	7.700e+04	2.575e-04	1.017e-05	 -106.14°	 -105.21°
   12   	8.400e+04	2.127e-04	8.402e-06	  157.74°	  158.67°
   13   	9.100e+04	3.349e-04	1.323e-05	  -90.67°	  -89.75°
   14   	9.800e+04	9.641e-05	3.809e-06	  100.68°	  101.61°
   15   	1.050e+05	1.448e-04	5.722e-06	  -96.87°	  -95.94°
   16   	1.120e+05	1.105e-04	4.364e-06	   37.76°	   38.69°
   17   	1.190e+05	2.203e-04	8.702e-06	  105.77°	  106.70°
   18   	1.260e+05	3.748e-05	1.481e-06	   52.30°	   53.22°
   19   	1.330e+05	4.201e-04	1.659e-05	   97.66°	   98.59°
   20   	1.400e+05	1.395e-04	5.510e-06	  164.53°	  165.45°
   21   	1.470e+05	2.714e-04	1.072e-05	   93.54°	   94.47°
   22   	1.540e+05	2.230e-04	8.808e-06	  157.25°	  158.18°
   23   	1.610e+05	7.728e-05	3.053e-06	  -98.71°	  -97.79°
   24   	1.680e+05	1.447e-04	5.715e-06	  134.53°	  135.45°
   25   	1.750e+05	2.734e-04	1.080e-05	 -101.38°	 -100.45°
   26   	1.820e+05	8.723e-05	3.446e-06	   27.09°	   28.02°
   27   	1.890e+05	1.278e-04	5.048e-06	 -122.03°	 -121.10°
   28   	1.960e+05	1.605e-04	6.341e-06	  -18.73°	  -17.81°
   29   	2.030e+05	2.297e-04	9.073e-06	   88.41°	   89.34°
   30   	2.100e+05	9.063e-05	3.580e-06	  -49.58°	  -48.65°
Total Harmonic Distortion: 0.008675%(0.033373%)

.step freq=8000
N-Period=4
Fourier components of V(out)
DC component:-0.0190121

Harmonic	Frequency	 Fourier 	Normalized	 Phase  	Normalized
 Number 	  [Hz]   	Component	 Component	[degree]	Phase [deg]
    1   	8.000e+03	2.531e+01	1.000e+00	   -1.08°	    0.00°
    2   	1.600e+04	1.055e-03	4.166e-05	  159.78°	  160.87°
    3   	2.400e+04	2.340e-03	9.244e-05	  -92.70°	  -91.62°
    4   	3.200e+04	2.587e-04	1.022e-05	  146.20°	  147.29°
    5   	4.000e+04	4.392e-04	1.735e-05	  -98.21°	  -97.12°
    6   	4.800e+04	3.373e-04	1.333e-05	  150.91°	  151.99°
    7   	5.600e+04	1.867e-04	7.375e-06	 -177.24°	 -176.16°
    8   	6.400e+04	3.411e-04	1.348e-05	  161.75°	  162.84°
    9   	7.200e+04	1.968e-04	7.776e-06	 -166.72°	 -165.64°
   10   	8.000e+04	3.678e-04	1.453e-05	  165.04°	  166.13°
   11   	8.800e+04	2.889e-04	1.141e-05	 -107.54°	 -106.46°
   12   	9.600e+04	2.522e-04	9.964e-06	  152.06°	  153.14°
   13   	1.040e+05	3.977e-04	1.571e-05	  -92.75°	  -91.67°
   14   	1.120e+05	1.203e-04	4.753e-06	   90.90°	   91.99°
   15   	1.200e+05	1.729e-04	6.831e-06	 -102.61°	 -101.52°
   16   	1.280e+05	1.393e-04	5.502e-06	   28.93°	   30.01°
   17   	1.360e+05	2.764e-04	1.092e-05	  103.34°	  104.42°
   18   	1.440e+05	4.098e-05	1.619e-06	   31.84°	   32.92°
   19   	1.520e+05	5.164e-04	2.040e-05	   93.12°	   94.21°
   20   	1.600e+05	1.636e-04	6.463e-06	  160.73°	  161.81°
   21   	1.680e+05	3.308e-04	1.307e-05	   87.20°	   88.28°
   22   	1.760e+05	2.607e-04	1.030e-05	  149.95°	  151.03°
   23   	1.840e+05	9.199e-05	3.634e-06	 -101.39°	 -100.31°
   24   	1.920e+05	1.653e-04	6.532e-06	  123.73°	  124.81°
   25   	2.000e+05	3.246e-04	1.282e-05	 -108.17°	 -107.09°
   26   	2.080e+05	1.112e-04	4.392e-06	   15.62°	   16.70°
   27   	2.160e+05	1.486e-04	5.870e-06	 -132.33°	 -131.25°
   28   	2.240e+05	1.917e-04	7.572e-06	  -28.76°	  -27.68°
   29   	2.320e+05	2.791e-04	1.103e-05	   81.64°	   82.72°
   30   	2.400e+05	1.055e-04	4.168e-06	  -61.78°	  -60.69°
Total Harmonic Distortion: 0.011522%(0.040444%)

.step freq=9000
N-Period=4
Fourier components of V(out)
DC component:-0.0169349

Harmonic	Frequency	 Fourier 	Normalized	 Phase  	Normalized
 Number 	  [Hz]   	Component	 Component	[degree]	Phase [deg]
    1   	9.000e+03	2.531e+01	1.000e+00	   -1.24°	    0.00°
    2   	1.800e+04	1.177e-03	4.650e-05	  159.04°	  160.27°
    3   	2.700e+04	3.295e-03	1.302e-04	  -94.16°	  -92.92°
    4   	3.600e+04	2.971e-04	1.174e-05	  141.41°	  142.65°
    5   	4.500e+04	5.075e-04	2.005e-05	  -99.50°	  -98.26°
    6   	5.400e+04	3.765e-04	1.487e-05	  146.98°	  148.22°
    7   	6.300e+04	2.282e-04	9.014e-06	  174.90°	  176.13°
    8   	7.200e+04	3.838e-04	1.516e-05	  159.01°	  160.25°
    9   	8.100e+04	2.264e-04	8.945e-06	 -176.61°	 -175.38°
   10   	9.000e+04	4.240e-04	1.675e-05	  161.87°	  163.11°
   11   	9.900e+04	3.156e-04	1.247e-05	 -109.39°	 -108.15°
   12   	1.080e+05	2.946e-04	1.164e-05	  146.86°	  148.10°
   13   	1.170e+05	4.599e-04	1.817e-05	  -94.82°	  -93.58°
   14   	1.260e+05	1.476e-04	5.830e-06	   83.20°	   84.44°
   15   	1.350e+05	2.001e-04	7.906e-06	 -107.35°	 -106.11°
   16   	1.440e+05	1.705e-04	6.737e-06	   21.87°	   23.11°
   17   	1.530e+05	3.358e-04	1.327e-05	  100.16°	  101.40°
   18   	1.620e+05	4.872e-05	1.925e-06	   14.35°	   15.59°
   19   	1.710e+05	6.174e-04	2.439e-05	   88.64°	   89.87°
   20   	1.800e+05	1.856e-04	7.333e-06	  156.42°	  157.66°
   21   	1.890e+05	3.946e-04	1.559e-05	   81.58°	   82.82°
   22   	1.980e+05	2.956e-04	1.168e-05	  143.08°	  144.32°
   23   	2.070e+05	1.026e-04	4.055e-06	 -105.69°	 -104.46°
   24   	2.160e+05	1.839e-04	7.265e-06	  114.22°	  115.46°
   25   	2.250e+05	3.715e-04	1.468e-05	 -114.41°	 -113.18°
   26   	2.340e+05	1.337e-04	5.282e-06	    5.39°	    6.63°
   27   	2.430e+05	1.663e-04	6.568e-06	 -139.97°	 -138.73°
   28   	2.520e+05	2.213e-04	8.742e-06	  -37.71°	  -36.48°
   29   	2.610e+05	3.233e-04	1.277e-05	   74.28°	   75.52°
   30   	2.700e+05	1.200e-04	4.743e-06	  -71.10°	  -69.87°
Total Harmonic Distortion: 0.015210%(0.047437%)

.step freq=10000
N-Period=4
Fourier components of V(out)
DC component:-0.0152726

Harmonic	Frequency	 Fourier 	Normalized	 Phase  	Normalized
 Number 	  [Hz]   	Component	 Component	[degree]	Phase [deg]
    1   	1.000e+04	2.531e+01	1.000e+00	   -1.39°	    0.00°
    2   	2.000e+04	1.298e-03	5.128e-05	  157.96°	  159.35°
    3   	3.000e+04	4.510e-03	1.782e-04	  -95.55°	  -94.15°
    4   	4.000e+04	3.367e-04	1.330e-05	  136.66°	  138.05°
    5   	5.000e+04	5.809e-04	2.295e-05	 -101.18°	  -99.78°
    6   	6.000e+04	4.161e-04	1.644e-05	  143.32°	  144.71°
    7   	7.000e+04	2.729e-04	1.078e-05	  166.73°	  168.12°
    8   	8.000e+04	4.314e-04	1.704e-05	  156.35°	  157.75°
    9   	9.000e+04	2.558e-04	1.011e-05	  173.99°	  175.38°
   10   	1.000e+05	4.860e-04	1.920e-05	  158.33°	  159.72°
   11   	1.100e+05	3.447e-04	1.362e-05	 -111.03°	 -109.63°
   12   	1.200e+05	3.389e-04	1.339e-05	  141.10°	  142.50°
   13   	1.300e+05	5.255e-04	2.076e-05	  -97.59°	  -96.20°
   14   	1.400e+05	1.772e-04	7.002e-06	   74.60°	   75.99°
   15   	1.500e+05	2.230e-04	8.812e-06	 -113.25°	 -111.86°
   16   	1.600e+05	2.040e-04	8.059e-06	   14.26°	   15.66°
   17   	1.700e+05	4.062e-04	1.605e-05	   95.87°	   97.27°
   18   	1.800e+05	5.534e-05	2.186e-06	   -1.46°	   -0.06°
   19   	1.900e+05	7.253e-04	2.865e-05	   83.45°	   84.85°
   20   	2.000e+05	2.114e-04	8.352e-06	  151.56°	  152.95°
   21   	2.100e+05	4.567e-04	1.804e-05	   75.61°	   77.01°
   22   	2.200e+05	3.304e-04	1.305e-05	  135.78°	  137.17°
   23   	2.300e+05	1.179e-04	4.660e-06	 -111.80°	 -110.41°
   24   	2.400e+05	1.987e-04	7.850e-06	  104.04°	  105.44°
   25   	2.500e+05	4.179e-04	1.651e-05	 -121.29°	 -119.89°
   26   	2.600e+05	1.588e-04	6.273e-06	   -5.99°	   -4.60°
   27   	2.700e+05	1.779e-04	7.029e-06	 -148.05°	 -146.66°
   28   	2.800e+05	2.511e-04	9.919e-06	  -47.12°	  -45.72°
   29   	2.900e+05	3.697e-04	1.461e-05	   65.85°	   67.25°
   30   	3.000e+05	1.322e-04	5.223e-06	  -80.87°	  -79.48°
Total Harmonic Distortion: 0.019912%(0.055012%)

.step freq=11000
N-Period=4
Fourier components of V(out)
DC component:-0.0139117

Harmonic	Frequency	 Fourier 	Normalized	 Phase  	Normalized
 Number 	  [Hz]   	Component	 Component	[degree]	Phase [deg]
    1   	1.100e+04	2.531e+01	1.000e+00	   -1.55°	    0.00°
    2   	2.200e+04	1.421e-03	5.614e-05	  156.73°	  158.28°
    3   	3.300e+04	6.027e-03	2.382e-04	  -96.78°	  -95.23°
    4   	4.400e+04	3.825e-04	1.511e-05	  132.03°	  133.58°
    5   	5.500e+04	6.725e-04	2.657e-05	 -102.82°	 -101.27°
    6   	6.600e+04	4.572e-04	1.806e-05	  139.37°	  140.91°
    7   	7.700e+04	3.270e-04	1.292e-05	  159.88°	  161.43°
    8   	8.800e+04	4.791e-04	1.893e-05	  153.46°	  155.01°
    9   	9.900e+04	2.943e-04	1.163e-05	  164.39°	  165.94°
   10   	1.100e+05	5.495e-04	2.171e-05	  154.68°	  156.23°
   11   	1.210e+05	3.675e-04	1.452e-05	 -113.01°	 -111.46°
   12   	1.320e+05	3.853e-04	1.522e-05	  135.46°	  137.01°
   13   	1.430e+05	5.888e-04	2.326e-05	 -100.09°	  -98.54°
   14   	1.540e+05	2.093e-04	8.269e-06	   67.11°	   68.66°
   15   	1.650e+05	2.429e-04	9.599e-06	 -117.84°	 -116.29°
   16   	1.760e+05	2.379e-04	9.401e-06	    7.51°	    9.06°
   17   	1.870e+05	4.785e-04	1.891e-05	   91.10°	   92.65°
   18   	1.980e+05	6.400e-05	2.529e-06	  -13.78°	  -12.23°
   19   	2.090e+05	8.359e-04	3.303e-05	   78.38°	   79.92°
   20   	2.200e+05	2.334e-04	9.221e-06	  145.93°	  147.48°
   21   	2.310e+05	5.220e-04	2.062e-05	   70.22°	   71.77°
   22   	2.420e+05	3.582e-04	1.415e-05	  128.52°	  130.06°
   23   	2.530e+05	1.280e-04	5.056e-06	 -118.74°	 -117.19°
   24   	2.640e+05	2.071e-04	8.184e-06	   94.76°	   96.31°
   25   	2.750e+05	4.583e-04	1.811e-05	 -127.40°	 -125.85°
   26   	2.860e+05	1.779e-04	7.029e-06	  -17.21°	  -15.66°
   27   	2.970e+05	1.853e-04	7.321e-06	 -152.95°	 -151.40°
   28   	3.080e+05	2.733e-04	1.080e-05	  -55.99°	  -54.44°
   29   	3.190e+05	4.066e-04	1.607e-05	   57.23°	   58.78°
   30   	3.300e+05	1.401e-04	5.537e-06	  -87.51°	  -85.96°
Total Harmonic Distortion: 0.025805%(0.063274%)

.step freq=12000
N-Period=4
Fourier components of V(out)
DC component:-0.0127738

Harmonic	Frequency	 Fourier 	Normalized	 Phase  	Normalized
 Number 	  [Hz]   	Component	 Component	[degree]	Phase [deg]
    1   	1.200e+04	2.531e+01	1.000e+00	   -1.71°	    0.00°
    2   	2.400e+04	1.542e-03	6.094e-05	  155.23°	  156.94°
    3   	3.600e+04	7.900e-03	3.122e-04	  -97.97°	  -96.27°
    4   	4.800e+04	4.313e-04	1.704e-05	  127.39°	  129.10°
    5   	6.000e+04	7.820e-04	3.090e-05	 -104.71°	 -103.00°
    6   	7.200e+04	4.992e-04	1.972e-05	  135.49°	  137.19°
    7   	8.400e+04	3.872e-04	1.530e-05	  153.20°	  154.91°
    8   	9.600e+04	5.310e-04	2.098e-05	  150.52°	  152.23°
    9   	1.080e+05	3.377e-04	1.335e-05	  155.20°	  156.91°
   10   	1.200e+05	6.186e-04	2.444e-05	  150.76°	  152.47°
   11   	1.320e+05	3.877e-04	1.532e-05	 -115.04°	 -113.34°
   12   	1.440e+05	4.342e-04	1.716e-05	  129.40°	  131.11°
   13   	1.560e+05	6.506e-04	2.571e-05	 -102.62°	 -100.92°
   14   	1.680e+05	2.453e-04	9.694e-06	   58.88°	   60.58°
   15   	1.800e+05	2.582e-04	1.020e-05	 -121.73°	 -120.03°
   16   	1.920e+05	2.759e-04	1.090e-05	    0.10°	    1.81°
   17   	2.040e+05	5.536e-04	2.187e-05	   85.87°	   87.58°
   18   	2.160e+05	7.235e-05	2.859e-06	  -27.84°	  -26.13°
   19   	2.280e+05	9.490e-04	3.750e-05	   73.31°	   75.01°
   20   	2.400e+05	2.600e-04	1.028e-05	  140.50°	  142.21°
   21   	2.520e+05	5.911e-04	2.336e-05	   65.14°	   66.84°
   22   	2.640e+05	3.888e-04	1.536e-05	  121.01°	  122.71°
   23   	2.760e+05	1.313e-04	5.188e-06	 -125.67°	 -123.96°
   24   	2.880e+05	2.151e-04	8.500e-06	   83.99°	   85.70°
   25   	3.000e+05	4.927e-04	1.947e-05	 -132.65°	 -130.94°
   26   	3.120e+05	2.066e-04	8.162e-06	  -28.83°	  -27.12°
   27   	3.240e+05	1.914e-04	7.563e-06	 -154.37°	 -152.66°
   28   	3.360e+05	3.032e-04	1.198e-05	  -65.58°	  -63.87°
   29   	3.480e+05	4.315e-04	1.705e-05	   48.51°	   50.21°
   30   	3.600e+05	1.512e-04	5.975e-06	  -97.30°	  -95.60°
Total Harmonic Distortion: 0.033106%(0.072190%)

.step freq=13000
N-Period=4
Fourier components of V(out)
DC component:-0.0118085

Harmonic	Frequency	 Fourier 	Normalized	 Phase  	Normalized
 Number 	  [Hz]   	Component	 Component	[degree]	Phase [deg]
    1   	1.300e+04	2.531e+01	1.000e+00	   -1.86°	    0.00°
    2   	2.600e+04	1.666e-03	6.582e-05	  153.63°	  155.49°
    3   	3.900e+04	1.019e-02	4.025e-04	  -99.14°	  -97.28°
    4   	5.200e+04	4.893e-04	1.934e-05	  122.77°	  124.63°
    5   	6.500e+04	9.203e-04	3.637e-05	 -106.80°	 -104.94°
    6   	7.800e+04	5.446e-04	2.152e-05	  131.04°	  132.90°
    7   	9.100e+04	4.545e-04	1.796e-05	  147.02°	  148.88°
    8   	1.040e+05	5.824e-04	2.301e-05	  147.21°	  149.08°
    9   	1.170e+05	3.894e-04	1.539e-05	  146.31°	  148.18°
   10   	1.300e+05	6.878e-04	2.718e-05	  146.91°	  148.78°
   11   	1.430e+05	4.026e-04	1.591e-05	 -117.33°	 -115.47°
   12   	1.560e+05	4.839e-04	1.912e-05	  123.82°	  125.68°
   13   	1.690e+05	7.101e-04	2.806e-05	 -105.00°	 -103.14°
   14   	1.820e+05	2.834e-04	1.120e-05	   51.83°	   53.69°
   15   	1.950e+05	2.687e-04	1.062e-05	 -123.90°	 -122.04°
   16   	2.080e+05	3.162e-04	1.249e-05	   -6.01°	   -4.15°
   17   	2.210e+05	6.287e-04	2.484e-05	   80.01°	   81.87°
   18   	2.340e+05	8.560e-05	3.383e-06	  -36.46°	  -34.59°
   19   	2.470e+05	1.065e-03	4.207e-05	   68.27°	   70.14°
   20   	2.600e+05	2.786e-04	1.101e-05	  134.88°	  136.75°
   21   	2.730e+05	6.657e-04	2.631e-05	   60.75°	   62.61°
   22   	2.860e+05	4.099e-04	1.620e-05	  114.40°	  116.26°
   23   	2.990e+05	1.290e-04	5.099e-06	 -134.68°	 -132.82°
   24   	3.120e+05	2.158e-04	8.527e-06	   75.21°	   77.08°
   25   	3.250e+05	5.250e-04	2.075e-05	 -136.75°	 -134.88°
   26   	3.380e+05	2.283e-04	9.023e-06	  -39.38°	  -37.52°
   27   	3.510e+05	2.006e-04	7.925e-06	 -149.71°	 -147.84°
   28   	3.640e+05	3.271e-04	1.293e-05	  -73.60°	  -71.73°
   29   	3.770e+05	4.462e-04	1.763e-05	   38.78°	   40.64°
   30   	3.900e+05	1.620e-04	6.402e-06	 -103.07°	 -101.20°
Total Harmonic Distortion: 0.042046%(0.082633%)

.step freq=14000
N-Period=4
Fourier components of V(out)
DC component:-0.010975

Harmonic	Frequency	 Fourier 	Normalized	 Phase  	Normalized
 Number 	  [Hz]   	Component	 Component	[degree]	Phase [deg]
    1   	1.400e+04	2.530e+01	1.000e+00	   -2.03°	    0.00°
    2   	2.800e+04	1.789e-03	7.071e-05	  151.78°	  153.81°
    3   	4.200e+04	1.295e-02	5.119e-04	 -100.31°	  -98.28°
    4   	5.600e+04	5.528e-04	2.185e-05	  118.20°	  120.23°
    5   	7.000e+04	1.095e-03	4.329e-05	 -109.19°	 -107.17°
    6   	8.400e+04	5.913e-04	2.337e-05	  126.69°	  128.71°
    7   	9.800e+04	5.277e-04	2.086e-05	  140.81°	  142.83°
    8   	1.120e+05	6.375e-04	2.519e-05	  143.85°	  145.87°
    9   	1.260e+05	4.427e-04	1.750e-05	  137.61°	  139.64°
   10   	1.400e+05	7.622e-04	3.012e-05	  142.67°	  144.69°
   11   	1.540e+05	4.169e-04	1.648e-05	 -119.05°	 -117.03°
   12   	1.680e+05	5.369e-04	2.122e-05	  117.68°	  119.70°
   13   	1.820e+05	7.687e-04	3.038e-05	 -107.68°	 -105.65°
   14   	1.960e+05	3.248e-04	1.284e-05	   44.32°	   46.34°
   15   	2.100e+05	2.715e-04	1.073e-05	 -126.98°	 -124.96°
   16   	2.240e+05	3.578e-04	1.414e-05	  -12.86°	  -10.83°
   17   	2.380e+05	7.122e-04	2.815e-05	   73.81°	   75.84°
   18   	2.520e+05	9.812e-05	3.878e-06	  -46.30°	  -44.27°
   19   	2.660e+05	1.180e-03	4.663e-05	   62.66°	   64.68°
   20   	2.800e+05	2.970e-04	1.174e-05	  128.76°	  130.78°
   21   	2.940e+05	7.335e-04	2.899e-05	   55.40°	   57.42°
   22   	3.080e+05	4.260e-04	1.684e-05	  107.15°	  109.17°
   23   	3.220e+05	1.293e-04	5.109e-06	 -142.62°	 -140.59°
   24   	3.360e+05	2.090e-04	8.262e-06	   65.21°	   67.24°
   25   	3.500e+05	5.531e-04	2.186e-05	 -141.49°	 -139.46°
   26   	3.640e+05	2.502e-04	9.887e-06	  -51.44°	  -49.41°
   27   	3.780e+05	2.130e-04	8.418e-06	 -147.38°	 -145.36°
   28   	3.920e+05	3.474e-04	1.373e-05	  -82.58°	  -80.55°
   29   	4.060e+05	4.555e-04	1.800e-05	   29.25°	   31.28°
   30   	4.200e+05	1.692e-04	6.688e-06	 -108.79°	 -106.77°
Total Harmonic Distortion: 0.052903%(0.094231%)

.step freq=15000
N-Period=4
Fourier components of V(out)
DC component:-0.0102457

Harmonic	Frequency	 Fourier 	Normalized	 Phase  	Normalized
 Number 	  [Hz]   	Component	 Component	[degree]	Phase [deg]
    1   	1.500e+04	2.530e+01	1.000e+00	   -2.19°	    0.00°
    2   	3.000e+04	1.913e-03	7.562e-05	  149.68°	  151.87°
    3   	4.500e+04	1.628e-02	6.436e-04	 -101.46°	  -99.27°
    4   	6.000e+04	6.251e-04	2.471e-05	  113.45°	  115.64°
    5   	7.500e+04	1.329e-03	5.252e-05	 -111.72°	 -109.53°
    6   	9.000e+04	6.421e-04	2.538e-05	  121.89°	  124.08°
    7   	1.050e+05	6.116e-04	2.417e-05	  135.49°	  137.68°
    8   	1.200e+05	6.946e-04	2.745e-05	  140.07°	  142.26°
    9   	1.350e+05	5.100e-04	2.016e-05	  129.30°	  131.49°
   10   	1.500e+05	8.373e-04	3.309e-05	  138.19°	  140.38°
   11   	1.650e+05	4.213e-04	1.665e-05	 -121.05°	 -118.86°
   12   	1.800e+05	5.879e-04	2.324e-05	  111.32°	  113.51°
   13   	1.950e+05	8.218e-04	3.248e-05	 -109.93°	 -107.74°
   14   	2.100e+05	3.672e-04	1.451e-05	   36.40°	   38.59°
   15   	2.250e+05	2.692e-04	1.064e-05	 -127.50°	 -125.31°
   16   	2.400e+05	4.001e-04	1.581e-05	  -19.99°	  -17.80°
   17   	2.550e+05	7.935e-04	3.136e-05	   67.26°	   69.45°
   18   	2.700e+05	1.100e-04	4.347e-06	  -55.80°	  -53.61°
   19   	2.850e+05	1.294e-03	5.113e-05	   57.14°	   59.33°
   20   	3.000e+05	3.143e-04	1.242e-05	  122.34°	  124.53°
   21   	3.150e+05	8.055e-04	3.184e-05	   50.35°	   52.54°
   22   	3.300e+05	4.360e-04	1.723e-05	   99.83°	  102.02°
   23   	3.450e+05	1.209e-04	4.778e-06	 -149.69°	 -147.51°
   24   	3.600e+05	1.942e-04	7.675e-06	   54.36°	   56.55°
   25   	3.750e+05	5.799e-04	2.292e-05	 -144.74°	 -142.55°
   26   	3.900e+05	2.734e-04	1.080e-05	  -64.22°	  -62.03°
   27   	4.050e+05	2.452e-04	9.690e-06	 -142.74°	 -140.55°
   28   	4.200e+05	3.649e-04	1.442e-05	  -91.87°	  -89.68°
   29   	4.350e+05	4.454e-04	1.761e-05	   20.01°	   22.20°
   30   	4.500e+05	1.730e-04	6.839e-06	 -114.35°	 -112.16°
Total Harmonic Distortion: 0.066008%(0.107693%)

.step freq=16000
N-Period=4
Fourier components of V(out)
DC component:-0.00959913

Harmonic	Frequency	 Fourier 	Normalized	 Phase  	Normalized
 Number 	  [Hz]   	Component	 Component	[degree]	Phase [deg]
    1   	1.600e+04	2.530e+01	1.000e+00	   -2.36°	    0.00°
    2   	3.200e+04	2.040e-03	8.064e-05	  147.36°	  149.71°
    3   	4.800e+04	2.027e-02	8.014e-04	 -102.64°	 -100.28°
    4   	6.400e+04	7.075e-04	2.797e-05	  108.81°	  111.17°
    5   	8.000e+04	1.631e-03	6.446e-05	 -114.57°	 -112.21°
    6   	9.600e+04	6.971e-04	2.756e-05	  116.84°	  119.20°
    7   	1.120e+05	7.039e-04	2.782e-05	  130.20°	  132.56°
    8   	1.280e+05	7.531e-04	2.977e-05	  135.92°	  138.28°
    9   	1.440e+05	5.844e-04	2.310e-05	  121.11°	  123.47°
   10   	1.600e+05	9.141e-04	3.613e-05	  133.51°	  135.87°
   11   	1.760e+05	4.208e-04	1.663e-05	 -122.48°	 -120.13°
   12   	1.920e+05	6.411e-04	2.534e-05	  105.04°	  107.40°
   13   	2.080e+05	8.751e-04	3.459e-05	 -111.83°	 -109.47°
   14   	2.240e+05	4.129e-04	1.632e-05	   28.87°	   31.23°
   15   	2.400e+05	2.681e-04	1.060e-05	 -125.28°	 -122.92°
   16   	2.560e+05	4.476e-04	1.769e-05	  -26.95°	  -24.59°
   17   	2.720e+05	8.730e-04	3.451e-05	   60.47°	   62.82°
   18   	2.880e+05	1.287e-04	5.086e-06	  -64.90°	  -62.54°
   19   	3.040e+05	1.411e-03	5.578e-05	   51.70°	   54.06°
   20   	3.200e+05	3.267e-04	1.291e-05	  116.70°	  119.06°
   21   	3.360e+05	8.854e-04	3.500e-05	   45.48°	   47.84°
   22   	3.520e+05	4.434e-04	1.753e-05	   93.03°	   95.39°
   23   	3.680e+05	1.103e-04	4.359e-06	 -155.75°	 -153.39°
   24   	3.840e+05	1.779e-04	7.032e-06	   43.23°	   45.58°
   25   	4.000e+05	6.190e-04	2.447e-05	 -147.07°	 -144.71°
   26   	4.160e+05	3.015e-04	1.192e-05	  -76.93°	  -74.57°
   27   	4.320e+05	3.031e-04	1.198e-05	 -139.16°	 -136.80°
   28   	4.480e+05	3.884e-04	1.535e-05	 -101.94°	  -99.58°
   29   	4.640e+05	4.298e-04	1.699e-05	   10.07°	   12.42°
   30   	4.800e+05	1.796e-04	7.100e-06	 -121.94°	 -119.59°
Total Harmonic Distortion: 0.081753%(0.123472%)

.step freq=17000
N-Period=4
Fourier components of V(out)
DC component:-0.00901904

Harmonic	Frequency	 Fourier 	Normalized	 Phase  	Normalized
 Number 	  [Hz]   	Component	 Component	[degree]	Phase [deg]
    1   	1.700e+04	2.530e+01	1.000e+00	   -2.53°	    0.00°
    2   	3.400e+04	2.166e-03	8.563e-05	  144.72°	  147.25°
    3   	5.100e+04	2.505e-02	9.901e-04	 -103.84°	 -101.31°
    4   	6.800e+04	8.021e-04	3.171e-05	  103.91°	  106.44°
    5   	8.500e+04	2.032e-03	8.031e-05	 -117.65°	 -115.12°
    6   	1.020e+05	7.596e-04	3.003e-05	  111.43°	  113.96°
    7   	1.190e+05	8.046e-04	3.181e-05	  125.13°	  127.65°
    8   	1.360e+05	8.159e-04	3.226e-05	  131.47°	  134.00°
    9   	1.530e+05	6.634e-04	2.623e-05	  112.94°	  115.46°
   10   	1.700e+05	9.928e-04	3.925e-05	  128.61°	  131.14°
   11   	1.870e+05	4.179e-04	1.652e-05	 -123.19°	 -120.66°
   12   	2.040e+05	6.916e-04	2.734e-05	   98.36°	  100.89°
   13   	2.210e+05	9.253e-04	3.658e-05	 -113.85°	 -111.32°
   14   	2.380e+05	4.613e-04	1.823e-05	   20.65°	   23.18°
   15   	2.550e+05	2.607e-04	1.031e-05	 -121.96°	 -119.43°
   16   	2.720e+05	4.970e-04	1.965e-05	  -34.12°	  -31.59°
   17   	2.890e+05	9.569e-04	3.783e-05	   53.22°	   55.75°
   18   	3.060e+05	1.456e-04	5.756e-06	  -73.52°	  -70.99°
   19   	3.230e+05	1.520e-03	6.007e-05	   45.78°	   48.30°
   20   	3.400e+05	3.370e-04	1.332e-05	  111.01°	  113.53°
   21   	3.570e+05	9.534e-04	3.769e-05	   40.08°	   42.61°
   22   	3.740e+05	4.396e-04	1.738e-05	   86.70°	   89.23°
   23   	3.910e+05	1.007e-04	3.981e-06	 -160.11°	 -157.58°
   24   	4.080e+05	1.478e-04	5.844e-06	   30.73°	   33.26°
   25   	4.250e+05	6.556e-04	2.592e-05	 -149.69°	 -147.16°
   26   	4.420e+05	3.285e-04	1.299e-05	  -89.92°	  -87.39°
   27   	4.590e+05	3.702e-04	1.463e-05	 -139.41°	 -136.88°
   28   	4.760e+05	4.033e-04	1.594e-05	 -111.39°	 -108.86°
   29   	4.930e+05	3.979e-04	1.573e-05	    0.67°	    3.20°
   30   	5.100e+05	1.817e-04	7.184e-06	 -128.18°	 -125.65°
Total Harmonic Distortion: 0.100603%(0.142003%)

.step freq=18000
N-Period=4
Fourier components of V(out)
DC component:-0.0084884

Harmonic	Frequency	 Fourier 	Normalized	 Phase  	Normalized
 Number 	  [Hz]   	Component	 Component	[degree]	Phase [deg]
    1   	1.800e+04	2.529e+01	1.000e+00	   -2.71°	    0.00°
    2   	3.600e+04	2.297e-03	9.084e-05	  141.68°	  144.39°
    3   	5.400e+04	3.074e-02	1.215e-03	 -105.09°	 -102.38°
    4   	7.200e+04	9.099e-04	3.597e-05	   98.82°	  101.53°
    5   	9.000e+04	2.570e-03	1.016e-04	 -120.90°	 -118.20°
    6   	1.080e+05	8.249e-04	3.262e-05	  105.75°	  108.45°
    7   	1.260e+05	9.176e-04	3.628e-05	  120.88°	  123.58°
    8   	1.440e+05	8.805e-04	3.481e-05	  126.85°	  129.55°
    9   	1.620e+05	7.573e-04	2.994e-05	  104.97°	  107.68°
   10   	1.800e+05	1.077e-03	4.259e-05	  123.44°	  126.15°
   11   	1.980e+05	4.047e-04	1.600e-05	 -122.92°	 -120.22°
   12   	2.160e+05	7.484e-04	2.959e-05	   91.33°	   94.04°
   13   	2.340e+05	9.753e-04	3.856e-05	 -115.28°	 -112.57°
   14   	2.520e+05	5.176e-04	2.047e-05	   12.22°	   14.92°
   15   	2.700e+05	2.673e-04	1.057e-05	 -114.96°	 -112.26°
   16   	2.880e+05	5.554e-04	2.196e-05	  -42.12°	  -39.41°
   17   	3.060e+05	1.033e-03	4.085e-05	   45.71°	   48.41°
   18   	3.240e+05	1.718e-04	6.794e-06	  -85.33°	  -82.63°
   19   	3.420e+05	1.624e-03	6.423e-05	   39.93°	   42.63°
   20   	3.600e+05	3.499e-04	1.384e-05	  106.57°	  109.28°
   21   	3.780e+05	1.026e-03	4.055e-05	   34.98°	   37.69°
   22   	3.960e+05	4.400e-04	1.740e-05	   80.40°	   83.11°
   23   	4.140e+05	8.723e-05	3.449e-06	 -164.59°	 -161.88°
   24   	4.320e+05	1.203e-04	4.758e-06	   14.46°	   17.17°
   25   	4.500e+05	7.040e-04	2.783e-05	 -151.75°	 -149.04°
   26   	4.680e+05	3.659e-04	1.447e-05	 -103.52°	 -100.81°
   27   	4.860e+05	4.656e-04	1.841e-05	 -141.02°	 -138.32°
   28   	5.040e+05	4.247e-04	1.679e-05	 -122.77°	 -120.06°
   29   	5.220e+05	3.491e-04	1.380e-05	  -10.08°	   -7.37°
   30   	5.400e+05	1.808e-04	7.149e-06	 -136.88°	 -134.18°
Total Harmonic Distortion: 0.123146%(0.164148%)

.step freq=19000
N-Period=4
Fourier components of V(out)
DC component:-0.00799825

Harmonic	Frequency	 Fourier 	Normalized	 Phase  	Normalized
 Number 	  [Hz]   	Component	 Component	[degree]	Phase [deg]
    1   	1.900e+04	2.529e+01	1.000e+00	   -2.89°	    0.00°
    2   	3.800e+04	2.436e-03	9.632e-05	  138.28°	  141.17°
    3   	5.700e+04	3.753e-02	1.484e-03	 -106.39°	 -103.50°
    4   	7.600e+04	1.037e-03	4.100e-05	   93.60°	   96.49°
    5   	9.500e+04	3.290e-03	1.301e-04	 -124.38°	 -121.50°
    6   	1.140e+05	9.012e-04	3.564e-05	   99.45°	  102.34°
    7   	1.330e+05	1.046e-03	4.137e-05	  117.27°	  120.16°
    8   	1.520e+05	9.459e-04	3.740e-05	  121.56°	  124.45°
    9   	1.710e+05	8.605e-04	3.403e-05	   96.94°	   99.83°
   10   	1.900e+05	1.158e-03	4.578e-05	  117.97°	  120.85°
   11   	2.090e+05	3.912e-04	1.547e-05	 -120.73°	 -117.84°
   12   	2.280e+05	7.998e-04	3.162e-05	   84.06°	   86.95°
   13   	2.470e+05	1.028e-03	4.064e-05	 -116.51°	 -113.62°
   14   	2.660e+05	5.733e-04	2.267e-05	    3.57°	    6.46°
   15   	2.850e+05	2.847e-04	1.126e-05	 -106.67°	 -103.79°
   16   	3.040e+05	6.117e-04	2.419e-05	  -50.18°	  -47.30°
   17   	3.230e+05	1.111e-03	4.392e-05	   37.90°	   40.79°
   18   	3.420e+05	1.977e-04	7.816e-06	  -96.02°	  -93.14°
   19   	3.610e+05	1.719e-03	6.799e-05	   33.84°	   36.73°
   20   	3.800e+05	3.577e-04	1.414e-05	  102.27°	  105.15°
   21   	3.990e+05	1.088e-03	4.301e-05	   29.57°	   32.46°
   22   	4.180e+05	4.283e-04	1.694e-05	   75.07°	   77.95°
   23   	4.370e+05	7.701e-05	3.045e-06	 -163.75°	 -160.86°
   24   	4.560e+05	8.233e-05	3.255e-06	   -6.92°	   -4.03°
   25   	4.750e+05	7.615e-04	3.011e-05	 -154.14°	 -151.25°
   26   	4.940e+05	3.963e-04	1.567e-05	 -117.06°	 -114.17°
   27   	5.130e+05	5.707e-04	2.257e-05	 -145.68°	 -142.80°
   28   	5.320e+05	4.356e-04	1.723e-05	 -133.60°	 -130.71°
   29   	5.510e+05	2.842e-04	1.124e-05	  -18.91°	  -16.02°
   30   	5.700e+05	1.792e-04	7.087e-06	 -145.05°	 -142.16°
Total Harmonic Distortion: 0.150099%(0.190161%)

.step freq=20000
N-Period=4
Fourier components of V(out)
DC component:-0.00753506

Harmonic	Frequency	 Fourier 	Normalized	 Phase  	Normalized
 Number 	  [Hz]   	Component	 Component	[degree]	Phase [deg]
    1   	2.000e+04	2.529e+01	1.000e+00	   -3.08°	    0.00°
    2   	4.000e+04	2.584e-03	1.022e-04	  134.38°	  137.45°
    3   	6.000e+04	4.564e-02	1.805e-03	 -107.77°	 -104.69°
    4   	8.000e+04	1.184e-03	4.682e-05	   88.22°	   91.29°
    5   	1.000e+05	4.257e-03	1.684e-04	 -128.13°	 -125.05°
    6   	1.200e+05	9.883e-04	3.909e-05	   92.82°	   95.89°
    7   	1.400e+05	1.191e-03	4.710e-05	  114.39°	  117.46°
    8   	1.600e+05	1.014e-03	4.011e-05	  115.67°	  118.74°
    9   	1.800e+05	9.736e-04	3.850e-05	   88.70°	   91.78°
   10   	2.000e+05	1.237e-03	4.893e-05	  111.98°	  115.06°
   11   	2.200e+05	3.785e-04	1.497e-05	 -116.20°	 -113.13°
   12   	2.400e+05	8.481e-04	3.354e-05	   76.36°	   79.44°
   13   	2.600e+05	1.082e-03	4.281e-05	 -117.62°	 -114.54°
   14   	2.800e+05	6.280e-04	2.484e-05	   -5.57°	   -2.49°
   15   	3.000e+05	3.234e-04	1.279e-05	  -99.38°	  -96.30°
   16   	3.200e+05	6.681e-04	2.642e-05	  -58.98°	  -55.91°
   17   	3.400e+05	1.179e-03	4.662e-05	   29.87°	   32.95°
   18   	3.600e+05	2.260e-04	8.940e-06	 -107.88°	 -104.81°
   19   	3.800e+05	1.802e-03	7.128e-05	   27.63°	   30.70°
   20   	4.000e+05	3.668e-04	1.451e-05	   98.18°	  101.25°
   21   	4.200e+05	1.148e-03	4.541e-05	   24.02°	   27.10°
   22   	4.400e+05	4.132e-04	1.634e-05	   69.96°	   73.03°
   23   	4.600e+05	6.513e-05	2.576e-06	 -156.90°	 -153.83°
   24   	4.800e+05	5.023e-05	1.987e-06	  -54.21°	  -51.13°
   25   	5.000e+05	8.290e-04	3.278e-05	 -156.92°	 -153.85°
   26   	5.200e+05	4.320e-04	1.709e-05	 -131.84°	 -128.76°
   27   	5.400e+05	6.909e-04	2.733e-05	 -152.13°	 -149.06°
   28   	5.600e+05	4.409e-04	1.744e-05	 -146.16°	 -143.08°
   29   	5.800e+05	1.993e-04	7.882e-06	  -26.31°	  -23.23°
   30   	6.000e+05	1.648e-04	6.519e-06	 -153.41°	 -150.33°
Total Harmonic Distortion: 0.182373%(0.221324%)

.step freq=21000
N-Period=4
Fourier components of V(out)
DC component:-0.00708927

Harmonic	Frequency	 Fourier 	Normalized	 Phase  	Normalized
 Number 	  [Hz]   	Component	 Component	[degree]	Phase [deg]
    1   	2.100e+04	2.528e+01	1.000e+00	   -3.27°	    0.00°
    2   	4.200e+04	2.747e-03	1.087e-04	  129.86°	  133.13°
    3   	6.300e+04	5.537e-02	2.190e-03	 -109.23°	 -105.96°
    4   	8.400e+04	1.361e-03	5.384e-05	   82.50°	   85.77°
    5   	1.050e+05	5.563e-03	2.201e-04	 -132.05°	 -128.78°
    6   	1.260e+05	1.089e-03	4.307e-05	   85.51°	   88.78°
    7   	1.470e+05	1.375e-03	5.440e-05	  112.93°	  116.20°
    8   	1.680e+05	1.078e-03	4.263e-05	  109.33°	  112.60°
    9   	1.890e+05	1.113e-03	4.403e-05	   81.06°	   84.33°
   10   	2.100e+05	1.314e-03	5.198e-05	  105.94°	  109.21°
   11   	2.310e+05	3.739e-04	1.479e-05	 -109.09°	 -105.82°
   12   	2.520e+05	8.997e-04	3.559e-05	   68.62°	   71.90°
   13   	2.730e+05	1.154e-03	4.563e-05	 -118.06°	 -114.79°
   14   	2.940e+05	6.923e-04	2.738e-05	  -14.61°	  -11.33°
   15   	3.150e+05	4.008e-04	1.585e-05	  -93.98°	  -90.71°
   16   	3.360e+05	7.359e-04	2.911e-05	  -68.19°	  -64.92°
   17   	3.570e+05	1.240e-03	4.907e-05	   21.62°	   24.89°
   18   	3.780e+05	2.701e-04	1.068e-05	 -121.36°	 -118.09°
   19   	3.990e+05	1.882e-03	7.446e-05	   21.73°	   25.00°
   20   	4.200e+05	3.870e-04	1.531e-05	   96.02°	   99.29°
   21   	4.410e+05	1.209e-03	4.784e-05	   19.04°	   22.31°
   22   	4.620e+05	4.094e-04	1.620e-05	   65.89°	   69.16°
   23   	4.830e+05	6.381e-05	2.524e-06	 -148.09°	 -144.82°
   24   	5.040e+05	5.911e-05	2.338e-06	 -115.68°	 -112.41°
   25   	5.250e+05	9.218e-04	3.646e-05	 -159.84°	 -156.57°
   26   	5.460e+05	4.733e-04	1.872e-05	 -145.94°	 -142.67°
   27   	5.670e+05	8.334e-04	3.297e-05	 -158.84°	 -155.57°
   28   	5.880e+05	4.486e-04	1.774e-05	 -159.50°	 -156.23°
   29   	6.090e+05	1.075e-04	4.251e-06	  -27.12°	  -23.85°
   30   	6.300e+05	1.458e-04	5.766e-06	 -163.11°	 -159.83°
Total Harmonic Distortion: 0.221153%(0.258645%)

.step freq=22000
N-Period=4
Fourier components of V(out)
DC component:-0.00664405

Harmonic	Frequency	 Fourier 	Normalized	 Phase  	Normalized
 Number 	  [Hz]   	Component	 Component	[degree]	Phase [deg]
    1   	2.200e+04	2.528e+01	1.000e+00	   -3.48°	    0.00°
    2   	4.400e+04	2.931e-03	1.160e-04	  124.52°	  128.00°
    3   	6.600e+04	6.707e-02	2.654e-03	 -110.84°	 -107.36°
    4   	8.800e+04	1.564e-03	6.187e-05	   76.49°	   79.97°
    5   	1.100e+05	7.329e-03	2.900e-04	 -136.29°	 -132.81°
    6   	1.320e+05	1.208e-03	4.781e-05	   78.10°	   81.57°
    7   	1.540e+05	1.601e-03	6.333e-05	  112.85°	  116.33°
    8   	1.760e+05	1.151e-03	4.554e-05	  101.83°	  105.31°
    9   	1.980e+05	1.266e-03	5.010e-05	   73.49°	   76.97°
   10   	2.200e+05	1.380e-03	5.459e-05	   98.94°	  102.41°
   11   	2.420e+05	3.787e-04	1.498e-05	  -99.15°	  -95.68°
   12   	2.640e+05	9.304e-04	3.681e-05	   60.50°	   63.97°
   13   	2.860e+05	1.224e-03	4.844e-05	 -118.35°	 -114.87°
   14   	3.080e+05	7.353e-04	2.909e-05	  -24.20°	  -20.72°
   15   	3.300e+05	5.019e-04	1.986e-05	  -92.76°	  -89.29°
   16   	3.520e+05	7.877e-04	3.116e-05	  -77.40°	  -73.92°
   17   	3.740e+05	1.271e-03	5.030e-05	   13.34°	   16.82°
   18   	3.960e+05	3.128e-04	1.237e-05	 -132.36°	 -128.89°
   19   	4.180e+05	1.942e-03	7.683e-05	   15.96°	   19.44°
   20   	4.400e+05	3.996e-04	1.581e-05	   94.78°	   98.25°
   21   	4.620e+05	1.280e-03	5.064e-05	   13.49°	   16.97°
   22   	4.840e+05	4.042e-04	1.599e-05	   64.59°	   68.07°
   23   	5.060e+05	7.501e-05	2.968e-06	 -121.60°	 -118.12°
   24   	5.280e+05	8.815e-05	3.488e-06	 -158.83°	 -155.35°
   25   	5.500e+05	1.030e-03	4.076e-05	 -163.90°	 -160.42°
   26   	5.720e+05	5.018e-04	1.985e-05	 -159.07°	 -155.59°
   27   	5.940e+05	9.804e-04	3.879e-05	 -168.32°	 -164.85°
   28   	6.160e+05	4.547e-04	1.799e-05	 -172.04°	 -168.56°
   29   	6.380e+05	5.822e-05	2.303e-06	   50.81°	   54.28°
   30   	6.600e+05	1.283e-04	5.075e-06	 -176.17°	 -172.69°
Total Harmonic Distortion: 0.267920%(0.303608%)

.step freq=23000
N-Period=4
Fourier components of V(out)
DC component:-0.00620082

Harmonic	Frequency	 Fourier 	Normalized	 Phase  	Normalized
 Number 	  [Hz]   	Component	 Component	[degree]	Phase [deg]
    1   	2.300e+04	2.527e+01	1.000e+00	   -3.69°	    0.00°
    2   	4.600e+04	3.153e-03	1.248e-04	  118.48°	  122.17°
    3   	6.900e+04	8.124e-02	3.215e-03	 -112.59°	 -108.90°
    4   	9.200e+04	1.830e-03	7.242e-05	   69.92°	   73.62°
    5   	1.150e+05	9.730e-03	3.850e-04	 -140.96°	 -137.26°
    6   	1.380e+05	1.361e-03	5.387e-05	   69.43°	   73.13°
    7   	1.610e+05	1.952e-03	7.725e-05	  113.77°	  117.46°
    8   	1.840e+05	1.215e-03	4.808e-05	   93.92°	   97.62°
    9   	2.070e+05	1.457e-03	5.764e-05	   66.01°	   69.71°
   10   	2.300e+05	1.438e-03	5.689e-05	   92.42°	   96.11°
   11   	2.530e+05	4.371e-04	1.730e-05	  -89.65°	  -85.96°
   12   	2.760e+05	9.570e-04	3.787e-05	   52.36°	   56.05°
   13   	2.990e+05	1.331e-03	5.268e-05	 -119.24°	 -115.55°
   14   	3.220e+05	7.924e-04	3.136e-05	  -34.25°	  -30.56°
   15   	3.450e+05	6.126e-04	2.424e-05	  -94.09°	  -90.40°
   16   	3.680e+05	8.480e-04	3.356e-05	  -87.05°	  -83.35°
   17   	3.910e+05	1.314e-03	5.200e-05	    5.14°	    8.83°
   18   	4.140e+05	3.557e-04	1.408e-05	 -146.06°	 -142.36°
   19   	4.370e+05	2.000e-03	7.916e-05	   10.09°	   13.78°
   20   	4.600e+05	4.400e-04	1.741e-05	   92.92°	   96.61°
   21   	4.830e+05	1.333e-03	5.273e-05	    7.97°	   11.67°
   22   	5.060e+05	4.079e-04	1.614e-05	   63.98°	   67.68°
   23   	5.290e+05	1.071e-04	4.236e-06	 -120.10°	 -116.41°
   24   	5.520e+05	1.446e-04	5.724e-06	  178.46°	  182.15°
   25   	5.750e+05	1.152e-03	4.557e-05	 -168.79°	 -165.09°
   26   	5.980e+05	5.331e-04	2.110e-05	 -172.54°	 -168.85°
   27   	6.210e+05	1.126e-03	4.455e-05	 -177.68°	 -173.98°
   28   	6.440e+05	4.404e-04	1.743e-05	  174.82°	  178.51°
   29   	6.670e+05	1.696e-04	6.713e-06	   79.85°	   83.54°
   30   	6.900e+05	8.764e-05	3.468e-06	  172.49°	  176.18°
Total Harmonic Distortion: 0.324753%(0.358658%)

.step freq=24000
N-Period=4
Fourier components of V(out)
DC component:-0.00572245

Harmonic	Frequency	 Fourier 	Normalized	 Phase  	Normalized
 Number 	  [Hz]   	Component	 Component	[degree]	Phase [deg]
    1   	2.400e+04	2.526e+01	1.000e+00	   -3.92°	    0.00°
    2   	4.800e+04	3.444e-03	1.363e-04	  111.38°	  115.30°
    3   	7.200e+04	9.852e-02	3.900e-03	 -114.55°	 -110.62°
    4   	9.600e+04	2.145e-03	8.491e-05	   62.80°	   66.72°
    5   	1.200e+05	1.303e-02	5.156e-04	 -146.06°	 -142.14°
    6   	1.440e+05	1.524e-03	6.033e-05	   60.20°	   64.12°
    7   	1.680e+05	2.497e-03	9.885e-05	  115.60°	  119.52°
    8   	1.920e+05	1.277e-03	5.056e-05	   85.26°	   89.19°
    9   	2.160e+05	1.705e-03	6.750e-05	   59.03°	   62.95°
   10   	2.400e+05	1.493e-03	5.910e-05	   85.05°	   88.97°
   11   	2.640e+05	5.214e-04	2.064e-05	  -80.88°	  -76.95°
   12   	2.880e+05	9.814e-04	3.885e-05	   43.64°	   47.56°
   13   	3.120e+05	1.448e-03	5.730e-05	 -120.36°	 -116.43°
   14   	3.360e+05	8.386e-04	3.320e-05	  -44.88°	  -40.96°
   15   	3.600e+05	7.475e-04	2.959e-05	  -97.57°	  -93.64°
   16   	3.840e+05	9.024e-04	3.572e-05	  -98.20°	  -94.28°
   17   	4.080e+05	1.325e-03	5.244e-05	   -3.65°	    0.28°
   18   	4.320e+05	4.125e-04	1.633e-05	 -160.61°	 -156.69°
   19   	4.560e+05	2.037e-03	8.064e-05	    4.51°	    8.43°
   20   	4.800e+05	4.884e-04	1.933e-05	   89.80°	   93.72°
   21   	5.040e+05	1.399e-03	5.536e-05	    2.92°	    6.85°
   22   	5.280e+05	4.276e-04	1.693e-05	   61.71°	   65.64°
   23   	5.520e+05	1.355e-04	5.363e-06	 -115.89°	 -111.96°
   24   	5.760e+05	1.918e-04	7.593e-06	  159.95°	  163.87°
   25   	6.000e+05	1.288e-03	5.100e-05	 -174.26°	 -170.33°
   26   	6.240e+05	5.564e-04	2.202e-05	  173.27°	  177.19°
   27   	6.480e+05	1.295e-03	5.127e-05	  172.34°	  176.26°
   28   	6.720e+05	4.288e-04	1.697e-05	  160.79°	  164.72°
   29   	6.960e+05	3.140e-04	1.243e-05	   77.11°	   81.03°
   30   	7.200e+05	5.164e-05	2.044e-06	  165.93°	  169.85°
Total Harmonic Distortion: 0.394349%(0.426133%)

.step freq=25000
N-Period=4
Fourier components of V(out)
DC component:-0.00520212

Harmonic	Frequency	 Fourier 	Normalized	 Phase  	Normalized
 Number 	  [Hz]   	Component	 Component	[degree]	Phase [deg]
    1   	2.500e+04	2.525e+01	1.000e+00	   -4.17°	    0.00°
    2   	5.000e+04	3.844e-03	1.522e-04	  103.67°	  107.84°
    3   	7.500e+04	1.198e-01	4.744e-03	 -116.77°	 -112.60°
    4   	1.000e+05	2.552e-03	1.010e-04	   55.53°	   59.71°
    5   	1.250e+05	1.758e-02	6.962e-04	 -151.80°	 -147.63°
    6   	1.500e+05	1.728e-03	6.841e-05	   49.56°	   53.73°
    7   	1.750e+05	3.417e-03	1.353e-04	  116.59°	  120.77°
    8   	2.000e+05	1.306e-03	5.172e-05	   75.06°	   79.23°
    9   	2.250e+05	2.071e-03	8.199e-05	   52.28°	   56.45°
   10   	2.500e+05	1.526e-03	6.044e-05	   77.74°	   81.91°
   11   	2.750e+05	6.715e-04	2.659e-05	  -73.48°	  -69.31°
   12   	3.000e+05	1.005e-03	3.981e-05	   35.89°	   40.06°
   13   	3.250e+05	1.607e-03	6.363e-05	 -121.99°	 -117.82°
   14   	3.500e+05	8.691e-04	3.441e-05	  -54.87°	  -50.70°
   15   	3.750e+05	8.870e-04	3.512e-05	 -104.09°	  -99.92°
   16   	4.000e+05	9.557e-04	3.784e-05	 -109.84°	 -105.67°
   17   	4.250e+05	1.315e-03	5.205e-05	  -11.48°	   -7.31°
   18   	4.500e+05	4.895e-04	1.938e-05	 -174.30°	 -170.13°
   19   	4.750e+05	2.078e-03	8.229e-05	   -0.86°	    3.31°
   20   	5.000e+05	5.464e-04	2.164e-05	   86.36°	   90.53°
   21   	5.250e+05	1.468e-03	5.815e-05	   -3.08°	    1.09°
   22   	5.500e+05	4.651e-04	1.842e-05	   57.95°	   62.12°
   23   	5.750e+05	1.916e-04	7.588e-06	 -118.10°	 -113.92°
   24   	6.000e+05	2.269e-04	8.983e-06	  141.16°	  145.33°
   25   	6.250e+05	1.443e-03	5.714e-05	  179.13°	  183.30°
   26   	6.500e+05	5.660e-04	2.241e-05	  158.76°	  162.93°
   27   	6.750e+05	1.460e-03	5.782e-05	  160.96°	  165.13°
   28   	7.000e+05	4.113e-04	1.629e-05	  146.66°	  150.83°
   29   	7.250e+05	4.902e-04	1.941e-05	   65.69°	   69.86°
   30   	7.500e+05	2.494e-05	9.876e-07	 -158.74°	 -154.57°
Total Harmonic Distortion: 0.480526%(0.510045%)



Measurement: vrms
  step	RMS(v(out))	FROM	TO
     1	0.000421709	0.001	0.01
     2	17.9	0.001	0.01
     3	17.901	0.001	0.01
     4	17.901	0.001	0.01
     5	17.9007	0.001	0.01
     6	17.9004	0.001	0.01
     7	17.8999	0.001	0.01
     8	17.8993	0.001	0.01
     9	17.8986	0.001	0.01
    10	17.8978	0.001	0.01
    11	17.8969	0.001	0.01
    12	17.8959	0.001	0.01
    13	17.8947	0.001	0.01
    14	17.8934	0.001	0.01
    15	17.892	0.001	0.01
    16	17.8904	0.001	0.01
    17	17.8887	0.001	0.01
    18	17.8867	0.001	0.01
    19	17.8846	0.001	0.01
    20	17.8821	0.001	0.01
    21	17.8794	0.001	0.01
    22	17.8763	0.001	0.01
    23	17.8728	0.001	0.01
    24	17.8687	0.001	0.01
    25	17.8638	0.001	0.01
    26	17.858	0.001	0.01

Measurement: pout
  step	AVG(v(out)*i(rl))	FROM	TO
     1	2.22298e-008	0.001	0.01
     2	40.0512	0.001	0.01
     3	40.0557	0.001	0.01
     4	40.0556	0.001	0.01
     5	40.0545	0.001	0.01
     6	40.0528	0.001	0.01
     7	40.0507	0.001	0.01
     8	40.0481	0.001	0.01
     9	40.045	0.001	0.01
    10	40.0414	0.001	0.01
    11	40.0373	0.001	0.01
    12	40.0327	0.001	0.01
    13	40.0276	0.001	0.01
    14	40.0219	0.001	0.01
    15	40.0155	0.001	0.01
    16	40.0084	0.001	0.01
    17	40.0006	0.001	0.01
    18	39.9919	0.001	0.01
    19	39.9822	0.001	0.01
    20	39.9714	0.001	0.01
    21	39.9592	0.001	0.01
    22	39.9454	0.001	0.01
    23	39.9296	0.001	0.01
    24	39.9113	0.001	0.01
    25	39.8896	0.001	0.01
    26	39.8634	0.001	0.01

Measurement: vout_max
  step	MAX(v(out))	FROM	TO
     1	-0.000421708	0	0.01
     2	25.164	0	0.01
     3	25.2412	0	0.01
     4	25.2659	0	0.01
     5	25.2779	0	0.01
     6	25.2848	0	0.01
     7	25.289	0	0.01
     8	25.2916	0	0.01
     9	25.2934	0	0.01
    10	25.2943	0	0.01
    11	25.2947	0	0.01
    12	25.2946	0	0.01
    13	25.2943	0	0.01
    14	25.2936	0	0.01
    15	25.2928	0	0.01
    16	25.2915	0	0.01
    17	25.2902	0	0.01
    18	25.2886	0	0.01
    19	25.2869	0	0.01
    20	25.2849	0	0.01
    21	25.2828	0	0.01
    22	25.2804	0	0.01
    23	25.2781	0	0.01
    24	25.2755	0	0.01
    25	25.2727	0	0.01
    26	25.2698	0	0.01


Date: Sun Nov 24 20:49:37 2019
Total elapsed time: 1208.051 seconds.

tnom = 27
temp = 27
method = modified trap
totiter = 519610
traniter = 517502
tranpoints = 208925
accept = 186654
rejected = 22271
matrix size = 103
fillins = 180
Matrix Compiler1: 23.94 KB object code size  14.7/13.8/[7.8]
Matrix Compiler2: 14.49 KB object code size  6.4/9.0/[6.5]

